time (s)	coil I (A)	last det (V)	int current (uC)
9855.032804	1.243520	0.180770	569.532410
9855.033713	0.679969	0.180770	1187.624756
9855.034606	0.093904	0.180770	1271.480835
9855.035571	0.091124	0.180770	1359.415771
9855.036483	0.091095	0.180770	1442.494385
9855.037380	0.091150	0.180770	1524.255859
9855.038316	0.091219	0.180770	1609.637329
9855.039206	0.091223	0.180770	1690.825928
9855.040108	0.091165	0.180770	1773.056396
9855.040995	0.091198	0.180770	1853.948608
9855.041929	0.091260	0.180770	1939.185181
9855.042832	0.091165	0.180770	2021.506714
9856.085469	1.226162	0.203570	543.189880
9856.086403	0.659194	0.203570	1158.877319
9856.087303	0.093501	0.203570	1243.028198
9856.088235	0.091282	0.203570	1328.102783
9856.089139	0.091227	0.203570	1410.571777
9856.090045	0.091176	0.203570	1493.176758
9856.090931	0.091227	0.203570	1574.003662
9856.091882	0.091285	0.203570	1660.816040
9856.092789	0.091205	0.203570	1743.538818
9856.093682	0.091223	0.203570	1825.001099
9856.094603	0.091205	0.203570	1909.000732
9856.095511	0.091322	0.203570	1991.921143
9857.157595	1.224587	0.170417	549.839783
9857.158551	0.617919	0.170417	1140.570068
9857.159461	0.092959	0.170417	1225.162720
9857.160353	0.091113	0.170417	1306.435791
9857.161288	0.091238	0.170417	1391.743164
9857.162187	0.091289	0.170417	1473.812012
9857.163079	0.091135	0.170417	1555.104614
9857.163967	0.091260	0.170417	1636.143311
9857.164897	0.091282	0.170417	1721.035278
9857.165805	0.091198	0.170417	1803.842651
9857.166708	0.091212	0.170417	1886.207275
9857.167596	0.091157	0.170417	1967.154907
9858.191880	1.283317	0.187960	642.941650
9858.192806	0.588084	0.187960	1187.506958
9858.193708	0.092754	0.187960	1271.171021
9858.194593	0.091241	0.187960	1351.919678
9858.195529	0.091293	0.187960	1437.369629
9858.196431	0.091219	0.187960	1519.649658
9858.197322	0.091285	0.187960	1600.984985
9858.198260	0.091198	0.187960	1686.528198
9858.199170	0.091212	0.187960	1769.531250
9858.200068	0.091205	0.187960	1851.433228
9858.200959	0.091205	0.187960	1932.696777
9858.201895	0.091256	0.187960	2018.112549
9859.275261	1.228920	0.185471	599.712769
9859.276196	0.587223	0.185471	1148.766113
9859.277099	0.092556	0.185471	1232.344360
9859.277987	0.091271	0.185471	1313.392822
9859.278924	0.091370	0.185471	1399.006104
9859.279827	0.091212	0.185471	1481.370728
9859.280750	0.091212	0.185471	1565.559570
9859.281639	0.091223	0.185471	1646.656982
9859.282579	0.091300	0.185471	1732.479004
9859.283473	0.091190	0.185471	1814.003052
9859.284356	0.091252	0.185471	1894.578979
9859.285293	0.091344	0.185471	1980.168335
9860.301308	1.269924	0.191908	612.103516
9860.302234	0.601919	0.191908	1169.480469
9860.303136	0.092908	0.191908	1253.283203
9860.304022	0.091165	0.191908	1334.054932
9860.304962	0.091179	0.191908	1419.763428
9860.305866	0.091190	0.191908	1502.199341
9860.306759	0.091223	0.191908	1583.661621
9860.307693	0.091296	0.191908	1668.932495
9860.308600	0.091274	0.191908	1751.718384
9860.309498	0.091143	0.191908	1833.564453
9860.310391	0.091208	0.191908	1915.013672
9860.311318	0.091245	0.191908	1999.597900
9861.388767	1.227880	0.189632	551.317932
9861.389671	0.700521	0.189632	1184.589111
9861.390556	0.094362	0.189632	1268.099121
9861.391504	0.091179	0.189632	1354.536987
9861.392403	0.091190	0.189632	1436.516968
9861.393299	0.091187	0.189632	1518.220093
9861.394234	0.091168	0.189632	1603.462402
9861.395139	0.091205	0.189632	1686.002808
9861.396037	0.091179	0.189632	1767.881714
9861.396926	0.091201	0.189632	1848.959595
9861.397875	0.091201	0.189632	1935.509521
9861.398785	0.091176	0.189632	2018.479248
9862.421974	1.219303	0.185588	543.809143
9862.422875	0.713456	0.185588	1186.632812
9862.423763	0.094636	0.185588	1270.669800
9862.424716	0.091124	0.185588	1357.511230
9862.425636	0.091165	0.185588	1441.382568
9862.426536	0.091179	0.185588	1523.443848
9862.427477	0.091176	0.185588	1609.239990
9862.428380	0.091150	0.185588	1691.548340
9862.429280	0.091077	0.185588	1773.517334
9862.430166	0.091194	0.185588	1854.315063
9862.431120	0.091241	0.185588	1941.359375
9862.432019	0.091227	0.185588	2023.372314
9863.492050	1.214703	0.195082	542.972412
9863.492948	0.720663	0.195082	1190.127686
9863.493841	0.094581	0.195082	1274.588745
9863.494797	0.091208	0.195082	1361.784058
9863.495703	0.091194	0.195082	1444.405640
9863.496599	0.091296	0.195082	1526.207153
9863.497484	0.091146	0.195082	1606.871582
9863.498416	0.091219	0.195082	1691.888184
9863.499315	0.091110	0.195082	1773.795776
9863.500203	0.091157	0.195082	1854.743408
9863.501134	0.091150	0.195082	1939.604004
9863.502044	0.091157	0.195082	2022.557129
9864.542670	1.204098	0.180915	529.803040
9864.543566	0.713979	0.180915	1169.528564
9864.544533	0.092911	0.180915	1259.373901
9864.545440	0.091058	0.180915	1341.963867
9864.546335	0.091161	0.180915	1423.552856
9864.547266	0.091256	0.180915	1508.512329
9864.548170	0.091223	0.180915	1590.978027
9864.549064	0.091139	0.180915	1672.456177
9864.549949	0.091135	0.180915	1753.110840
9864.550887	0.091212	0.180915	1838.667847
9864.551784	0.091121	0.180915	1920.403076
9864.552690	0.091150	0.180915	2002.984863
9865.600518	1.238804	0.200307	616.924255
9865.601436	0.594558	0.200307	1162.728638
9865.602333	0.092996	0.200307	1246.145752
9865.603218	0.091208	0.200307	1326.865234
9865.604154	0.091172	0.200307	1412.202148
9865.605054	0.091256	0.200307	1494.332642
9865.605960	0.091161	0.200307	1576.924438
9865.606844	0.091289	0.200307	1657.624023
9865.607785	0.091205	0.200307	1743.447754
9865.608695	0.091146	0.200307	1826.390869
9865.609582	0.091212	0.200307	1907.296021
9865.610510	0.091216	0.200307	1991.944336
9866.663373	1.216384	0.190510	536.425476
9866.664355	0.596898	0.190510	1122.579590
9866.665269	0.092703	0.190510	1207.309814
9866.666159	0.091179	0.190510	1288.459351
9866.667092	0.091176	0.190510	1373.526123
9866.668003	0.091161	0.190510	1456.573730
9866.668902	0.091198	0.190510	1538.560303
9866.669796	0.091143	0.190510	1620.041748
9866.670732	0.091227	0.190510	1705.430054
9866.671633	0.091165	0.190510	1787.569336
9866.672542	0.091084	0.190510	1870.364624
9866.673429	0.091216	0.190510	1951.273071
9867.709898	1.210767	0.192408	526.683472
9867.710869	0.617135	0.192408	1125.921631
9867.711777	0.092878	0.192408	1210.255249
9867.712667	0.091121	0.192408	1291.352539
9867.713601	0.091230	0.192408	1376.561768
9867.714501	0.091289	0.192408	1458.721924
9867.715402	0.091106	0.192408	1540.808350
9867.716295	0.091128	0.192408	1622.185547
9867.717247	0.091263	0.192408	1709.068359
9867.718147	0.091168	0.192408	1791.119751
9867.719051	0.091274	0.192408	1873.631836
9867.719935	0.091172	0.192408	1954.227783
9868.778956	1.204036	0.179570	528.571655
9868.779853	0.711764	0.179570	1167.023926
9868.780814	0.093182	0.179570	1256.572144
9868.781726	0.091227	0.179570	1339.770996
9868.782620	0.091135	0.179570	1421.245850
9868.783545	0.091241	0.179570	1505.644165
9868.784443	0.091135	0.179570	1587.483643
9868.785345	0.091025	0.179570	1669.588501
9868.786234	0.091223	0.179570	1750.685913
9868.787182	0.091271	0.179570	1837.210571
9868.788080	0.091198	0.179570	1919.105957
9868.788981	0.091055	0.179570	2001.146240
9869.820362	1.206017	0.200154	528.235413
9869.821330	0.612074	0.200154	1120.723022
9869.822246	0.092673	0.200154	1205.611816
9869.823139	0.091150	0.200154	1287.008667
9869.824044	0.091194	0.200154	1369.539062
9869.824987	0.091187	0.200154	1455.527954
9869.825883	0.091205	0.200154	1537.247437
9869.826772	0.091205	0.200154	1618.328491
9869.827713	0.091179	0.200154	1704.128174
9869.828611	0.091044	0.200154	1785.885376
9869.829524	0.091172	0.200154	1869.125244
9869.830423	0.091249	0.200154	1951.157959
9870.896639	1.242286	0.191360	608.720337
9870.897569	0.598008	0.191360	1164.867676
9870.898464	0.092761	0.191360	1247.888916
9870.899352	0.091132	0.191360	1328.813721
9870.900284	0.091252	0.191360	1413.860962
9870.901186	0.091117	0.191360	1496.048462
9870.902090	0.091157	0.191360	1578.454590
9870.902978	0.091150	0.191360	1659.395752
9870.903923	0.091252	0.191360	1745.629272
9870.904832	0.091033	0.191360	1828.378052
9870.905728	0.091194	0.191360	1910.087769
9870.906668	0.091058	0.191360	1995.682617
9871.934937	1.228499	0.194047	556.509827
9871.935828	0.706703	0.194047	1186.182129
9871.936785	0.093387	0.194047	1275.553955
9871.937679	0.091150	0.194047	1357.041992
9871.938581	0.091146	0.194047	1439.255859
9871.939472	0.091263	0.194047	1520.571533
9871.940416	0.091219	0.194047	1606.682739
9871.941320	0.091205	0.194047	1689.131958
9871.942219	0.091234	0.194047	1771.151489
9871.943151	0.091245	0.194047	1856.191895
9871.944055	0.091271	0.194047	1938.700684
9871.944949	0.091110	0.194047	2020.152710
9873.010139	1.226122	0.189765	546.850342
9873.011071	0.668602	0.189765	1169.987671
9873.011968	0.093450	0.189765	1253.812012
9873.012878	0.091198	0.189765	1336.801758
9873.013804	0.091282	0.189765	1421.328613
9873.014704	0.091029	0.189765	1503.254761
9873.015598	0.091187	0.189765	1584.775513
9873.016533	0.091274	0.189765	1670.117065
9873.017434	0.091278	0.189765	1752.358643
9873.018329	0.091139	0.189765	1833.927979
9873.019217	0.091121	0.189765	1914.843018
9873.020142	0.091271	0.189765	1999.268433
9874.047439	1.215897	0.204336	537.426575
9874.048349	0.705798	0.204336	1179.703125
9874.049233	0.094373	0.204336	1263.128418
9874.050211	0.091187	0.204336	1352.308838
9874.051117	0.091201	0.204336	1434.937134
9874.052014	0.091278	0.204336	1516.813599
9874.052959	0.091113	0.204336	1602.915649
9874.053858	0.091135	0.204336	1684.846191
9874.054752	0.091095	0.204336	1766.285156
9874.055643	0.091088	0.204336	1847.444214
9874.056579	0.091318	0.204336	1932.918213
9874.057478	0.091113	0.204336	2014.829102
9875.123687	1.233219	0.189801	564.814331
9875.124614	0.667610	0.189801	1183.688721
9875.125505	0.093666	0.189801	1267.144897
9875.126450	0.091227	0.189801	1353.354248
9875.127355	0.091238	0.189801	1435.924438
9875.128252	0.091139	0.189801	1517.676025
9875.129138	0.091296	0.189801	1598.564575
9875.130091	0.091289	0.189801	1685.563110
9875.131001	0.091183	0.189801	1768.539551
9875.131894	0.091154	0.189801	1849.939697
9875.132828	0.091187	0.189801	1935.107910
9875.133728	0.091201	0.189801	2017.188965
9876.163021	1.197001	0.197878	526.680298
9876.164012	0.597872	0.197878	1119.171753
9876.164911	0.092640	0.197878	1202.455444
9876.165825	0.091157	0.197878	1285.773193
9876.166727	0.091165	0.197878	1368.003662
9876.167691	0.091018	0.197878	1455.745117
9876.168595	0.091062	0.197878	1538.065186
9876.169485	0.091124	0.197878	1619.165771
9876.170414	0.091223	0.197878	1703.912109
9876.171334	0.091099	0.197878	1787.722900
9876.172250	0.091121	0.197878	1871.189331
9876.173138	0.091128	0.197878	1952.110962
9877.235157	1.209829	0.189423	538.373962
9877.236058	0.713723	0.189423	1181.438477
9877.237011	0.093875	0.189423	1270.900879
9877.237908	0.091051	0.189423	1352.573608
9877.238825	0.091121	0.189423	1436.131226
9877.239715	0.091128	0.189423	1517.235107
9877.240654	0.091249	0.189423	1602.917725
9877.241559	0.091135	0.189423	1685.395142
9877.242450	0.091110	0.189423	1766.573853
9877.243370	0.091007	0.189423	1850.300415
9877.244305	0.091139	0.189423	1935.515259
9877.245208	0.091168	0.189423	2017.840088
9878.278605	1.201487	0.205733	527.452698
9878.279582	0.598502	0.205733	1112.189453
9878.280486	0.092816	0.205733	1196.095215
9878.281385	0.091117	0.205733	1278.009399
9878.282271	0.091223	0.205733	1358.833130
9878.283209	0.091271	0.205733	1444.445068
9878.284105	0.091124	0.205733	1526.092407
9878.285000	0.091168	0.205733	1607.687988
9878.285923	0.091201	0.205733	1691.866699
9878.286837	0.091157	0.205733	1775.184448
9878.287737	0.091154	0.205733	1857.222656
9878.288625	0.091285	0.205733	1938.284058
9879.346666	1.256774	0.190418	589.426880
9879.347576	0.659051	0.190418	1189.163696
9879.348467	0.093666	0.190418	1272.619873
9879.349413	0.091165	0.190418	1358.861572
9879.350313	0.091172	0.190418	1440.916260
9879.351212	0.091128	0.190418	1522.840332
9879.352097	0.091124	0.190418	1603.485352
9879.353040	0.091263	0.190418	1689.546753
9879.353948	0.091069	0.190418	1772.237671
9879.354841	0.091066	0.190418	1853.559326
9879.355774	0.091176	0.190418	1938.626099
9879.356681	0.091190	0.190418	2021.335571
9880.396249	1.214945	0.195489	535.790771
9880.397168	0.687975	0.195489	1168.039673
9880.398064	0.093889	0.195489	1252.164307
9880.398991	0.091146	0.195489	1336.656860
9880.399893	0.091252	0.195489	1418.966553
9880.400794	0.091132	0.195489	1501.076172
9880.401678	0.091241	0.195489	1581.733643
9880.402629	0.091271	0.195489	1668.532104
9880.403531	0.091187	0.195489	1750.782349
9880.404430	0.091106	0.195489	1832.686646
9880.405315	0.091241	0.195489	1913.435303
9880.406253	0.091249	0.195489	1999.026611
9881.454036	1.207859	0.191687	531.457947
9881.454928	0.731715	0.191687	1184.147827
9881.455883	0.093479	0.191687	1273.420288
9881.456778	0.091194	0.191687	1355.038818
9881.457677	0.091007	0.191687	1436.854248
9881.458570	0.091176	0.191687	1518.274048
9881.459513	0.091183	0.191687	1604.259521
9881.460419	0.091212	0.191687	1686.897705
9881.461313	0.091201	0.191687	1768.431519
9881.462243	0.091088	0.191687	1853.143066
9881.463139	0.091150	0.191687	1934.813354
9881.464034	0.091135	0.191687	2016.379395
9882.514888	1.203677	0.209053	528.414124
9882.515882	0.560951	0.209053	1085.999268
9882.516789	0.092512	0.209053	1169.907837
9882.517682	0.091135	0.209053	1251.291626
9882.518588	0.091201	0.209053	1333.919922
9882.519515	0.091124	0.209053	1418.392090
9882.520423	0.091121	0.209053	1501.129639
9882.521315	0.090948	0.209053	1582.255737
9882.522244	0.091212	0.209053	1666.991821
9882.523148	0.091274	0.209053	1749.503906
9882.524044	0.091172	0.209053	1831.193848
9882.524933	0.091128	0.209053	1912.206543
9883.561423	1.207148	0.190837	532.352478
9883.562390	0.610203	0.190837	1122.418457
9883.563291	0.092878	0.190837	1206.101929
9883.564194	0.091157	0.190837	1288.416870
9883.565087	0.091165	0.190837	1369.826782
9883.566023	0.091198	0.190837	1455.187622
9883.566932	0.091022	0.190837	1537.926392
9883.567822	0.091212	0.190837	1619.105225
9883.568755	0.091190	0.190837	1704.185669
9883.569658	0.091154	0.190837	1786.497314
9883.570558	0.091062	0.190837	1868.453125
9883.571449	0.091080	0.190837	1949.605713
9884.634569	1.199978	0.204324	526.790344
9884.635490	0.705608	0.204324	1176.655273
9884.636429	0.092937	0.204324	1263.923096
9884.637337	0.091058	0.204324	1346.604126
9884.638231	0.091113	0.204324	1428.059448
9884.639165	0.091168	0.204324	1513.210571
9884.640084	0.091110	0.204324	1596.940308
9884.640986	0.091099	0.204324	1679.111328
9884.641879	0.091073	0.204324	1760.439453
9884.642829	0.091165	0.204324	1847.045776
9884.643727	0.091157	0.204324	1928.904907
9884.644616	0.091124	0.204324	2009.914429
9885.669855	1.223306	0.205085	550.487549
9885.670765	0.693138	0.205085	1181.243530
9885.671654	0.093992	0.205085	1264.802124
9885.672589	0.091135	0.205085	1350.013550
9885.673515	0.091106	0.205085	1434.377686
9885.674415	0.091124	0.205085	1516.389526
9885.675302	0.091099	0.205085	1597.193970
9885.676260	0.091267	0.205085	1684.627808
9885.677159	0.091110	0.205085	1766.535400
9885.678080	0.091128	0.205085	1850.464233
9885.678963	0.091146	0.205085	1930.946411
9885.679893	0.091183	0.205085	2015.746460
9886.751183	1.203658	0.190087	530.813354
9886.752078	0.727921	0.190087	1182.302734
9886.753037	0.093179	0.190087	1271.661133
9886.753934	0.091102	0.190087	1353.379883
9886.754823	0.091051	0.190087	1434.324219
9886.755737	0.091176	0.190087	1517.658691
9886.756661	0.091121	0.190087	1601.854126
9886.757565	0.090970	0.190087	1684.091431
9886.758453	0.091161	0.190087	1765.042236
9886.759386	0.091165	0.190087	1850.098755
9886.760292	0.091106	0.190087	1932.640747
9886.761220	0.091128	0.190087	2017.207520
9887.783388	1.220024	0.207039	549.010986
9887.784285	0.711639	0.207039	1187.351562
9887.785242	0.093362	0.207039	1276.698853
9887.786140	0.091256	0.207039	1358.646851
9887.787043	0.091143	0.207039	1440.948608
9887.787967	0.091183	0.207039	1525.201538
9887.788861	0.091172	0.207039	1606.709229
9887.789802	0.091077	0.207039	1692.412354
9887.790711	0.091212	0.207039	1775.324219
9887.791630	0.091205	0.207039	1859.141479
9887.792523	0.091176	0.207039	1940.561279
9887.793475	0.091143	0.207039	2027.328979
9888.865750	1.227026	0.193995	550.934814
9888.866656	0.701188	0.193995	1186.210937
9888.867549	0.094427	0.193995	1270.534668
9888.868491	0.091304	0.193995	1356.542725
9888.869395	0.091329	0.193995	1439.104492
9888.870297	0.091307	0.193995	1521.463745
9888.871182	0.091267	0.193995	1602.235107
9888.872116	0.091388	0.193995	1687.591431
9888.873022	0.091190	0.193995	1770.209717
9888.873909	0.091293	0.193995	1851.186401
9888.874816	0.091326	0.193995	1934.018799
9888.875711	0.091219	0.193995	2015.660278
9889.901027	1.236903	0.207607	575.159912
9889.901938	0.660099	0.207607	1176.510010
9889.902880	0.093472	0.207607	1264.560303
9889.903791	0.091216	0.207607	1347.657959
9889.904710	0.091326	0.207607	1431.586304
9889.905598	0.091300	0.207607	1512.660767
9889.906557	0.091252	0.207607	1600.171875
9889.907479	0.091289	0.207607	1684.340332
9889.908367	0.091304	0.207607	1765.417969
9889.909284	0.091187	0.207607	1849.036011
9889.910198	0.091216	0.207607	1932.407227
9889.911115	0.091285	0.207607	2016.115967
9890.971082	1.202435	0.191691	527.869080
9890.971974	0.733513	0.191691	1182.162842
9890.972931	0.093384	0.191691	1271.531128
9890.973845	0.091289	0.191691	1354.969360
9890.974774	0.091300	0.191691	1439.787109
9890.975662	0.091234	0.191691	1520.802979
9890.976605	0.091326	0.191691	1606.923096
9890.977530	0.091223	0.191691	1691.304443
9890.978420	0.091271	0.191691	1772.535400
9890.979365	0.091329	0.191691	1858.841675
9890.980279	0.091274	0.191691	1942.266479
9890.981201	0.091392	0.191691	2026.529541
9892.020681	1.203860	0.210410	527.290588
9892.021658	0.608749	0.210410	1122.038086
9892.022569	0.092908	0.210410	1206.677002
9892.023458	0.091370	0.210410	1287.904541
9892.024381	0.091278	0.210410	1372.154175
9892.025294	0.091348	0.210410	1455.554565
9892.026210	0.091249	0.210410	1539.138428
9892.027106	0.091300	0.210410	1620.943237
9892.028036	0.091285	0.210410	1705.838623
9892.028935	0.091322	0.210410	1787.937134
9892.029832	0.091304	0.210410	1869.836548
9892.030717	0.091322	0.210410	1950.656494
9893.078487	1.215359	0.189918	537.188599
9893.079413	0.680515	0.189918	1167.345581
9893.080304	0.094069	0.189918	1251.160767
9893.081252	0.091282	0.189918	1337.695801
9893.082151	0.091212	0.189918	1419.695557
9893.083048	0.091219	0.189918	1501.519409
9893.083936	0.091201	0.189918	1582.506104
9893.084875	0.091399	0.189918	1668.329712
9893.085772	0.091381	0.189918	1750.298096
9893.086663	0.091296	0.189918	1831.643188
9893.087575	0.091355	0.189918	1914.958984
9893.088489	0.091406	0.189918	1998.504272
9894.142420	1.216066	0.210499	543.581360
9894.143313	0.723538	0.210499	1189.700439
9894.144257	0.094713	0.210499	1279.109619
9894.145166	0.091428	0.210499	1362.217896
9894.146068	0.091326	0.210499	1444.593628
9894.146954	0.091216	0.210499	1525.410889
9894.147902	0.091351	0.210499	1612.011963
9894.148805	0.091355	0.210499	1694.505493
9894.149702	0.091179	0.210499	1776.293213
9894.150587	0.091307	0.210499	1857.100220
9894.151525	0.091241	0.210499	1942.684692
9894.152434	0.091285	0.210499	2025.663086
9895.184849	1.211301	0.200468	536.606506
9895.185770	0.686580	0.200468	1168.946289
9895.186667	0.093801	0.200468	1253.086060
9895.187593	0.091238	0.200468	1337.572266
9895.188490	0.091267	0.200468	1419.438843
9895.189388	0.091044	0.200468	1501.196045
9895.190275	0.091124	0.200468	1582.023315
9895.191220	0.091274	0.200468	1668.277588
9895.192124	0.091274	0.200468	1750.789673
9895.193032	0.091208	0.200468	1833.606934
9895.193921	0.091146	0.200468	1914.635986
9895.194862	0.091176	0.200468	2000.432129
9896.261103	1.244011	0.200787	572.245178
9896.262026	0.654324	0.200787	1176.186035
9896.262924	0.093523	0.200787	1260.169678
9896.263811	0.091150	0.200787	1341.019653
9896.264759	0.091282	0.200787	1427.554687
9896.265665	0.091121	0.200787	1510.109985
9896.266557	0.091179	0.200787	1591.441895
