time (s)	coil I (A)	last det (V)	int current (uC)
6762.826696	1.198868	0.260293	521.507751
6762.827680	0.631751	0.260293	1143.150269
6762.828577	0.092772	0.260293	1226.366943
6762.829483	0.090974	0.260293	1308.789551
6762.830372	0.091099	0.260293	1389.776245
6762.831313	0.091077	0.260293	1475.479370
6762.832216	0.091095	0.260293	1557.738159
6762.833112	0.091055	0.260293	1639.323120
6762.834039	0.091165	0.260293	1723.832642
6762.834940	0.091102	0.260293	1805.915771
6762.835853	0.091073	0.260293	1889.065430
6762.836744	0.091051	0.260293	1970.191895
6763.872721	1.208185	0.277530	536.434082
6763.873623	0.717063	0.277530	1183.224854
6763.874556	0.094369	0.277530	1271.270996
6763.875468	0.091018	0.277530	1354.279419
6763.876363	0.091198	0.277530	1435.901245
6763.877253	0.091073	0.277530	1516.956177
6763.878199	0.091238	0.277530	1603.267090
6763.879085	0.091084	0.277530	1683.967529
6763.880004	0.091113	0.277530	1767.700684
6763.880894	0.091168	0.277530	1848.840332
6763.881852	0.091179	0.277530	1936.189941
6763.882758	0.091168	0.277530	2018.788330
6764.931547	1.228282	0.279850	547.813965
6764.932456	0.699749	0.279850	1183.885376
6764.933345	0.094010	0.279850	1267.460327
6764.934287	0.091025	0.279850	1353.206299
6764.935201	0.091146	0.279850	1436.513916
6764.936109	0.091040	0.279850	1519.178223
6764.936996	0.091062	0.279850	1599.950195
6764.937951	0.091124	0.279850	1686.973877
6764.938865	0.091051	0.279850	1770.194580
6764.939762	0.091168	0.279850	1851.972412
6764.940649	0.091113	0.279850	1932.789917
6764.941579	0.091150	0.279850	2017.559326
6765.997557	1.228414	0.257215	593.324097
6765.998482	0.633109	0.257215	1178.949951
6765.999378	0.093003	0.257215	1262.280518
6766.000268	0.091033	0.257215	1343.299683
6766.001211	0.091139	0.257215	1429.243652
6766.002125	0.090963	0.257215	1512.383911
6766.003029	0.091172	0.257215	1594.803223
6766.003914	0.091095	0.257215	1675.422241
6766.004852	0.091154	0.257215	1760.924316
6766.005755	0.090981	0.257215	1843.080566
6766.006640	0.091106	0.257215	1923.709351
6766.007572	0.091113	0.257215	2008.626953
6767.038432	1.227341	0.285970	549.848877
6767.039343	0.696863	0.285970	1184.690918
6767.040231	0.094087	0.285970	1268.240112
6767.041157	0.091135	0.285970	1352.631348
6767.042077	0.091132	0.285970	1436.472412
6767.042972	0.091040	0.285970	1517.953247
6767.043864	0.091198	0.285970	1599.301392
6767.044796	0.091165	0.285970	1684.266724
6767.045692	0.091044	0.285970	1765.841919
6767.046609	0.091157	0.285970	1849.433105
6767.047503	0.091128	0.285970	1930.901489
6767.048453	0.091084	0.285970	2017.431274
6768.112073	1.200692	0.255459	525.903137
6768.112969	0.731704	0.255459	1181.510010
6768.113928	0.093065	0.255459	1270.759521
6768.114841	0.091110	0.255459	1353.942627
6768.115745	0.091000	0.255459	1436.206421
6768.116629	0.091058	0.255459	1516.702026
6768.117574	0.091201	0.255459	1602.887085
6768.118486	0.091047	0.255459	1685.922241
6768.119376	0.091069	0.255459	1766.973999
6768.120306	0.091110	0.255459	1851.705933
6768.121205	0.091077	0.255459	1933.583862
6768.122103	0.091058	0.255459	2015.354248
6769.159628	1.212539	0.281103	531.092102
6769.160607	0.593401	0.281103	1112.031494
6769.161520	0.092637	0.281103	1196.608765
6769.162421	0.091121	0.281103	1278.708496
6769.163338	0.091091	0.281103	1362.239258
6769.164249	0.091260	0.281103	1445.376953
6769.165161	0.091106	0.281103	1528.465576
6769.166052	0.091051	0.281103	1609.592041
6769.166989	0.091190	0.281103	1695.037231
6769.167886	0.091088	0.281103	1776.742798
6769.168793	0.091077	0.281103	1859.349365
6769.169684	0.091157	0.281103	1940.570435
6770.217936	1.217999	0.261755	542.009644
6770.218847	0.704722	0.261755	1184.011108
6770.219732	0.094387	0.261755	1267.543823
6770.220691	0.091208	0.261755	1355.012817
6770.221595	0.091121	0.261755	1437.385864
6770.222487	0.091139	0.261755	1518.681763
6770.223413	0.091143	0.261755	1603.079834
6770.224320	0.091168	0.261755	1685.769409
6770.225216	0.091150	0.261755	1767.439697
6770.226103	0.091073	0.261755	1848.221436
6770.227054	0.091176	0.261755	1934.929321
6770.227962	0.091132	0.261755	2017.676758
6771.282888	1.211605	0.288233	531.894653
6771.283864	0.600773	0.288233	1118.248779
6771.284780	0.092582	0.288233	1203.053711
6771.285677	0.091102	0.288233	1284.772461
6771.286597	0.091205	0.288233	1368.680908
6771.287503	0.091201	0.288233	1451.309204
6771.288406	0.091143	0.288233	1533.610962
6771.289304	0.091117	0.288233	1615.433960
6771.290251	0.091201	0.288233	1701.801514
6771.291145	0.091146	0.288233	1783.286255
6771.292036	0.091252	0.288233	1864.592163
6771.292925	0.091201	0.288233	1945.670044
6772.324304	1.212349	0.261405	535.858093
6772.325205	0.727185	0.261405	1191.051758
6772.326097	0.094552	0.261405	1275.392090
6772.327063	0.091201	0.261405	1363.492432
6772.327970	0.091135	0.261405	1446.152100
6772.328867	0.091176	0.261405	1527.936523
6772.329795	0.091176	0.261405	1612.547363
6772.330693	0.091212	0.261405	1694.455933
6772.331580	0.091172	0.261405	1775.325439
6772.332465	0.091088	0.261405	1855.937988
6772.333401	0.091223	0.261405	1941.322876
6772.334311	0.091168	0.261405	2024.285889
6773.401556	1.213297	0.284419	539.917236
6773.402450	0.720359	0.284419	1183.917969
6773.403417	0.093032	0.284419	1273.880127
6773.404324	0.091069	0.284419	1356.479980
6773.405220	0.091143	0.284419	1438.143677
6773.406104	0.091110	0.284419	1518.684570
6773.407041	0.091219	0.284419	1604.157227
6773.407949	0.091135	0.284419	1686.908081
6773.408845	0.091157	0.284419	1768.584961
6773.409770	0.091198	0.284419	1852.942627
6773.410675	0.091296	0.284419	1935.565918
6773.411576	0.091165	0.284419	2017.705200
6774.436345	1.237738	0.282223	600.302917
6774.437271	0.605533	0.282223	1161.026855
6774.438173	0.092845	0.282223	1244.773437
6774.439062	0.091187	0.282223	1325.838257
6774.440005	0.091249	0.282223	1411.885864
6774.440902	0.091161	0.282223	1493.657227
6774.441797	0.091230	0.282223	1575.308472
6774.442684	0.091132	0.282223	1656.142212
6774.443621	0.091150	0.282223	1741.549683
6774.444517	0.091047	0.282223	1823.128174
6774.445413	0.091187	0.282223	1904.831299
6774.446347	0.091150	0.282223	1989.965332
6775.517138	1.226642	0.268354	548.308899
6775.518043	0.708798	0.268354	1189.770752
6775.518929	0.094460	0.268354	1273.462646
6775.519879	0.091165	0.268354	1360.068970
6775.520784	0.091190	0.268354	1442.596069
6775.521688	0.091205	0.268354	1525.045288
6775.522580	0.091201	0.268354	1606.396729
6775.523522	0.091249	0.268354	1692.353027
6775.524433	0.091205	0.268354	1775.440674
6775.525325	0.091223	0.268354	1856.811768
6775.526252	0.091322	0.268354	1941.467285
6775.527154	0.091249	0.268354	2023.773682
6776.553942	1.223408	0.290445	544.416687
6776.554849	0.707758	0.290445	1186.352783
6776.555733	0.094446	0.290445	1269.842896
6776.556674	0.091110	0.290445	1355.577026
6776.557580	0.091069	0.290445	1438.085815
6776.558478	0.091168	0.290445	1519.954834
6776.559415	0.091201	0.290445	1605.410278
6776.560321	0.091205	0.290445	1688.041870
6776.561224	0.091113	0.290445	1770.317139
6776.562111	0.091091	0.290445	1851.115112
6776.563065	0.091187	0.290445	1938.107056
6776.563965	0.091165	0.290445	2020.155151
6777.628113	1.216439	0.268265	541.315491
6777.629012	0.702671	0.268265	1173.016602
6777.629982	0.092805	0.268265	1263.037598
6777.630891	0.091183	0.268265	1345.922852
6777.631791	0.091187	0.268265	1427.990723
6777.632725	0.091219	0.268265	1513.189697
6777.633624	0.091205	0.268265	1595.182861
6777.634521	0.091212	0.268265	1677.000122
6777.635406	0.091124	0.268265	1757.645142
6777.636352	0.091223	0.268265	1843.942261
6777.637256	0.091095	0.268265	1926.292114
6777.638162	0.091165	0.268265	2008.887207
6778.671061	1.211668	0.279299	541.615417
6778.671954	0.726757	0.279299	1190.609009
6778.672911	0.093307	0.279299	1279.903687
6778.673804	0.091132	0.279299	1361.284180
6778.674708	0.091132	0.279299	1443.667114
6778.675598	0.091183	0.279299	1524.819824
6778.676551	0.091230	0.279299	1611.762451
6778.677451	0.091117	0.279299	1693.767700
6778.678346	0.091110	0.279299	1775.310791
6778.679273	0.091110	0.279299	1859.769409
6778.680165	0.091198	0.279299	1941.117554
6778.681061	0.091088	0.279299	2022.732056
6779.740650	1.235109	0.276177	569.385071
6779.741545	0.691267	0.276177	1188.069092
6779.742491	0.093904	0.276177	1276.902100
6779.743400	0.091230	0.276177	1359.830566
6779.744301	0.091044	0.276177	1441.860962
6779.745188	0.091121	0.276177	1522.684937
6779.746126	0.091176	0.276177	1608.207642
6779.747025	0.091080	0.276177	1690.088867
6779.747926	0.091128	0.276177	1772.195190
6779.748814	0.091073	0.276177	1853.067993
6779.749754	0.091106	0.276177	1938.707642
6779.750664	0.091157	0.276177	2021.660767
6780.788688	1.212583	0.289333	535.961731
6780.789584	0.708889	0.289333	1171.126465
6780.790551	0.092952	0.289333	1261.010742
6780.791449	0.091044	0.289333	1342.767944
6780.792341	0.091132	0.289333	1424.057373
6780.793280	0.091234	0.289333	1509.726196
6780.794186	0.091168	0.289333	1592.324585
6780.795102	0.091051	0.289333	1675.727295
6780.795988	0.091055	0.289333	1756.401733
6780.796915	0.091183	0.289333	1840.928223
6780.797832	0.091143	0.289333	1924.505981
6780.798748	0.091146	0.289333	2007.995972
6781.850587	1.229857	0.267451	552.205872
6781.851489	0.700514	0.267451	1184.069458
6781.852423	0.093424	0.267451	1271.327515
6781.853328	0.091194	0.267451	1353.857910
6781.854231	0.091128	0.267451	1436.146484
6781.855118	0.091128	0.267451	1516.976929
6781.856071	0.091183	0.267451	1603.874146
6781.856978	0.091029	0.267451	1686.437500
6781.857867	0.091088	0.267451	1767.414429
6781.858797	0.091135	0.267451	1852.170166
6781.859697	0.091161	0.267451	1934.214966
6781.860608	0.091091	0.267451	2017.199097
6782.905339	1.221544	0.281373	596.113525
6782.906265	0.614418	0.281373	1165.064331
6782.907170	0.092688	0.281373	1248.947021
6782.908067	0.091161	0.281373	1330.718384
6782.908998	0.091176	0.281373	1415.602783
6782.909906	0.091198	0.281373	1498.410156
6782.910812	0.091051	0.281373	1580.902344
6782.911700	0.091095	0.281373	1661.794678
6782.912652	0.091157	0.281373	1748.576416
6782.913562	0.091077	0.281373	1831.456177
6782.914454	0.091154	0.281373	1912.765137
6782.915401	0.091168	0.281373	1999.101440
6783.964113	1.215948	0.272044	542.312988
6783.965003	0.711013	0.272044	1175.114746
6783.965974	0.092981	0.272044	1265.399292
6783.966888	0.090978	0.272044	1348.552979
6783.967781	0.091124	0.272044	1429.927002
6783.968704	0.091113	0.272044	1514.024536
6783.969604	0.091117	0.272044	1596.029785
6783.970505	0.091124	0.272044	1678.132812
6783.971394	0.091106	0.272044	1759.125977
6783.972336	0.091190	0.272044	1845.027100
6783.973232	0.091165	0.272044	1926.710571
6783.974132	0.091132	0.272044	2008.729004
6785.019361	1.229282	0.289261	550.718384
6785.020292	0.666453	0.289261	1171.185791
6785.021178	0.093713	0.289261	1254.215820
6785.022113	0.091245	0.289261	1339.530029
6785.023024	0.091102	0.289261	1422.524170
6785.023926	0.091055	0.289261	1504.655518
6785.024819	0.091212	0.289261	1586.107910
6785.025772	0.091176	0.289261	1672.998169
6785.026670	0.091146	0.289261	1754.847534
6785.027560	0.091088	0.289261	1835.915527
6785.028492	0.091267	0.289261	1920.976440
6785.029394	0.091293	0.289261	2003.322510
6786.080219	1.233113	0.272491	557.367004
6786.081116	0.704813	0.272491	1189.584473
6786.082069	0.093464	0.272491	1278.656006
6786.082972	0.091157	0.272491	1360.970947
6786.083871	0.091088	0.272491	1442.858765
6786.084758	0.091128	0.272491	1523.689209
6786.085687	0.091179	0.272491	1608.394653
6786.086598	0.091117	0.272491	1691.402222
6786.087491	0.091176	0.272491	1772.822021
6786.088416	0.091252	0.272491	1857.230469
6786.089320	0.091139	0.272491	1939.619995
6786.090216	0.091084	0.272491	2021.231201
6787.131339	1.213191	0.282767	532.590820
6787.132298	0.623888	0.282767	1130.899414
6787.133217	0.092944	0.282767	1216.315308
6787.134114	0.091208	0.282767	1298.129272
6787.135045	0.091223	0.282767	1383.057983
6787.135956	0.091179	0.282767	1466.122192
6787.136862	0.091106	0.282767	1548.664185
6787.137750	0.091168	0.282767	1629.621582
6787.138691	0.091245	0.282767	1715.483276
6787.139590	0.091168	0.282767	1797.443481
6787.140485	0.091223	0.282767	1879.088135
6787.141369	0.091223	0.282767	1959.729370
6788.200408	1.215388	0.277675	539.632324
6788.201307	0.718436	0.277675	1185.506592
6788.202252	0.093636	0.277675	1273.993042
6788.203160	0.091161	0.277675	1356.767090
6788.204055	0.091187	0.277675	1438.379028
6788.204938	0.091113	0.277675	1518.832031
6788.205869	0.091267	0.277675	1603.801758
6788.206766	0.091099	0.277675	1685.517212
6788.207655	0.091212	0.277675	1766.604858
6788.208577	0.091179	0.277675	1850.672119
6788.209489	0.091208	0.277675	1933.854248
6788.210394	0.091249	0.277675	2016.434448
6789.240782	1.208833	0.293990	530.677673
6789.241749	0.623478	0.293990	1133.580811
6789.242652	0.093076	0.293990	1217.628540
6789.243548	0.091117	0.293990	1299.269287
6789.244453	0.091143	0.293990	1381.753296
6789.245347	0.091150	0.293990	1463.241333
6789.246271	0.091106	0.293990	1547.423218
6789.247182	0.091146	0.293990	1630.457397
6789.248098	0.091212	0.293990	1714.007690
6789.248984	0.091168	0.293990	1794.782715
6789.249934	0.091168	0.293990	1881.392578
6789.250858	0.091194	0.293990	1965.655640
6790.318082	1.256323	0.268285	623.136292
6790.319008	0.581964	0.268285	1162.035034
6790.319910	0.092607	0.268285	1245.566895
6790.320795	0.091198	0.268285	1326.276733
6790.321753	0.091205	0.268285	1413.651001
6790.322649	0.091187	0.268285	1495.354126
6790.323557	0.091161	0.268285	1578.128174
6790.324447	0.091110	0.268285	1659.215698
6790.325377	0.091190	0.268285	1744.022583
6790.326280	0.091084	0.268285	1826.271362
6790.327166	0.091051	0.268285	1906.942627
6790.328090	0.091267	0.268285	1991.273437
6791.353297	1.211235	0.280266	535.365967
6791.354188	0.723073	0.280266	1179.623535
6791.355147	0.093245	0.280266	1269.045166
6791.356052	0.091154	0.280266	1351.539185
6791.356948	0.091157	0.280266	1433.216064
6791.357872	0.091143	0.280266	1517.431763
6791.358775	0.091194	0.280266	1599.779785
6791.359683	0.090959	0.280266	1682.370972
6791.360574	0.091124	0.280266	1763.562744
6791.361503	0.091263	0.280266	1848.346436
6791.362407	0.091161	0.280266	1930.755859
6791.363309	0.091176	0.280266	2012.996216
6792.433096	1.204526	0.285804	528.787048
6792.433990	0.733011	0.285804	1184.099365
6792.434959	0.092944	0.285804	1274.162476
6792.435871	0.091223	0.285804	1357.358032
6792.436766	0.091143	0.285804	1438.930664
6792.437687	0.091219	0.285804	1522.943848
6792.438599	0.091289	0.285804	1606.199463
6792.439507	0.091165	0.285804	1688.976929
6792.440401	0.091172	0.285804	1770.484619
6792.441321	0.091198	0.285804	1854.386353
6792.442225	0.091205	0.285804	1936.835571
6792.443125	0.091154	0.285804	2018.873779
6793.467340	1.201231	0.277526	524.937744
6793.468233	0.731122	0.277526	1177.829590
6793.469196	0.093175	0.277526	1267.557129
6793.470098	0.091022	0.277526	1349.658691
6793.470989	0.091099	0.277526	1430.827637
6793.471943	0.091165	0.277526	1517.798584
6793.472842	0.091080	0.277526	1599.679810
6793.473764	0.091168	0.277526	1683.736938
6793.474659	0.091099	0.277526	1765.270264
6793.475595	0.091230	0.277526	1850.661987
6793.476508	0.091102	0.277526	1933.838379
6793.477421	0.091150	0.277526	2017.058228
6794.546642	1.206877	0.296161	529.819214
6794.547599	0.680361	0.296161	1180.925049
6794.548504	0.093157	0.296161	1265.231934
6794.549403	0.091121	0.296161	1347.149414
6794.550294	0.091187	0.296161	1428.396606
6794.551235	0.091241	0.296161	1514.254761
6794.552136	0.091201	0.296161	1596.427002
6794.553044	0.091293	0.296161	1679.320801
6794.553932	0.091190	0.296161	1760.297729
6794.554877	0.091208	0.296161	1846.489746
6794.555784	0.091073	0.296161	1929.093018
6794.556673	0.091187	0.296161	2010.157837
6795.586504	1.194899	0.278167	515.001282
6795.587447	0.711043	0.278167	1185.514404
6795.588358	0.093442	0.278167	1270.640381
6795.589263	0.091106	0.278167	1353.091309
6795.590151	0.091110	0.278167	1433.996704
6795.591099	0.091267	0.278167	1520.517944
6795.591998	0.091143	0.278167	1602.455078
6795.592895	0.091040	0.278167	1684.118042
6795.593786	0.091091	0.278167	1765.280396
6795.594736	0.091201	0.278167	1851.921509
6795.595637	0.091190	0.278167	1934.083862
6795.596537	0.091106	0.278167	2016.079224
6796.654553	1.220775	0.293128	542.024231
6796.655473	0.688923	0.293128	1175.833740
6796.656369	0.093871	0.293128	1259.942017
6796.657293	0.091110	0.293128	1344.127319
6796.658207	0.091252	0.293128	1427.532104
6796.659111	0.091091	0.293128	1509.878662
6796.660009	0.091176	0.293128	1591.754272
6796.660947	0.091176	0.293128	1677.276978
6796.661846	0.091187	0.293128	1759.253662
6796.662747	0.091080	0.293128	1841.317017
6796.663630	0.091106	0.293128	1921.763550
6796.664568	0.091172	0.293128	2007.282715
6797.710282	1.199509	0.268478	520.587036
6797.711249	0.641517	0.268478	1140.934326
6797.712163	0.093109	0.268478	1226.036133
6797.713062	0.091088	0.268478	1307.923950
6797.713949	0.091091	0.268478	1388.721924
6797.714887	0.091230	0.268478	1474.296143
6797.715793	0.091128	0.268478	1556.858032
6797.716688	0.091110	0.268478	1638.401123
6797.717601	0.091187	0.268478	1721.654419
6797.718532	0.091143	0.268478	1806.508179
6797.719437	0.091088	0.268478	1888.942505
6797.720326	0.091187	0.268478	1970.007324
6798.759895	1.204559	0.313664	534.824341
6798.760795	0.722860	0.313664	1185.398437
6798.761731	0.094548	0.313664	1273.895752
6798.762648	0.091088	0.313664	1357.423096
6798.763552	0.091121	0.313664	1439.796143
6798.764448	0.091135	0.313664	1521.453369
6798.765410	0.091183	0.313664	1609.171265
6798.766319	0.091088	0.313664	1691.969971
6798.767214	0.091168	0.313664	1773.565552
6798.768146	0.091245	0.313664	1858.605957
6798.769048	0.091139	0.313664	1940.813232
6798.769965	0.091263	0.313664	2024.501831
6799.830997	1.220878	0.264168	539.627991
6799.831921	0.683544	0.264168	1171.222412
6799.832821	0.093556	0.264168	1255.422729
6799.833748	0.091227	0.264168	1339.989990
6799.834651	0.091198	0.264168	1422.341309
6799.835550	0.091165	0.264168	1504.298218
6799.836438	0.091223	0.264168	1585.304321
6799.837382	0.091238	0.264168	1671.432739
6799.838278	0.091198	0.264168	1753.145752
6799.839174	0.091187	0.264168	1834.848877
6799.840066	0.091165	0.264168	1916.167603
6799.841014	0.091230	0.264168	2002.654053
6800.870404	1.257880	0.297704	623.908264
6800.871329	0.587542	0.297704	1167.384155
6800.872231	0.092758	0.297704	1251.051514
6800.873119	0.091187	0.297704	1332.025146
6800.874066	0.091329	0.297704	1418.514038
6800.874974	0.091124	0.297704	1501.254883
6800.875864	0.091201	0.297704	1582.423950
6800.876758	0.091278	0.297704	1664.026611
6800.877682	0.091227	0.297704	1748.320190
6800.878591	0.091187	0.297704	1831.208740
6800.879491	0.091135	0.297704	1913.230469
6800.880431	0.091234	0.297704	1998.990601
6801.945047	1.223939	0.281140	550.772644
6801.945953	0.702056	0.281140	1186.834961
6801.946898	0.094237	0.281140	1275.889038
6801.947810	0.091198	0.281140	1359.061157
6801.948714	0.091263	0.281140	1441.563232
6801.949600	0.091150	0.281140	1522.322021
6801.950550	0.091212	0.281140	1608.973511
6801.951448	0.091256	0.281140	1690.921509
6801.952341	0.091102	0.281140	1772.275879
6801.953227	0.091143	0.281140	1853.028198
6801.954185	0.091227	0.281140	1940.423462
6801.955092	0.091102	0.281140	2023.053223
6802.991069	1.225723	0.282537	547.898010
6802.991966	0.718202	0.282537	1192.125122
6802.992853	0.094658	0.282537	1276.086914
6802.993806	0.091256	0.282537	1363.053955
6802.994704	0.091227	0.282537	1444.975586
6802.995606	0.091208	0.282537	1527.245605
6802.996495	0.091139	0.282537	1608.268066
6802.997444	0.091230	0.282537	1694.845825
6802.998353	0.091154	0.282537	1777.704468
6802.999250	0.091121	0.282537	1859.439697
6803.000187	0.091260	0.282537	1944.950073
6803.001083	0.091245	0.282537	2026.705688
6804.050897	1.212144	0.293285	535.767456
6804.051802	0.728730	0.293285	1195.268555
6804.052689	0.094600	0.293285	1279.178467
6804.053607	0.091146	0.293285	1362.850708
6804.054514	0.091227	0.293285	1445.593384
6804.055415	0.091132	0.293285	1527.703003
6804.056301	0.091187	0.293285	1608.494263
